Data from 0_340_Subt2_02.txt Node
Date: Tue Feb 04 18:37:39 CST 2020
User: Biofotoacustica
Spectrometer: USB2+H15927
Trigger mode: 0
Integration Time (sec): 2.000000E-1
Scans to average: 5
Electric dark correction enabled: true
Nonlinearity correction enabled: false
Boxcar width: 0
XAxis mode: Wavelengths
Number of Pixels in Spectrum: 2048
>>>>>Begin Spectral Data<<<<<
179.215	-9.66
179.593	-9.66
179.971	-9.66
180.349	10.68
180.727	50.9
181.105	14.29
181.483	-11.47
181.86	14.75
182.238	12.49
182.616	-24.58
182.994	5.25
183.371	-26.84
183.749	14.75
184.127	4.8
184.504	16.1
184.882	-7.85
185.26	-4.24
185.637	11.58
186.015	-6.95
186.392	13.39
186.77	14.75
187.147	-25.93
187.524	31.02
187.902	45.03
188.279	299.48
188.657	457.22
189.034	340.16
189.411	207.28
189.788	134.97
190.166	185.14
190.543	140.84
190.92	99.71
191.297	223.55
191.674	289.99
192.051	217.68
192.428	189.66
192.805	199.6
193.182	157.11
193.559	189.2
193.936	105.59
194.313	121.41
194.69	148.08
195.067	101.52
195.444	190.11
195.821	216.32
196.198	206.38
196.574	297.22
196.951	140.84
197.328	138.58
197.704	158.47
198.081	137.68
198.458	100.62
198.834	144.01
199.211	107.4
199.588	199.6
199.964	246.15
200.341	164.8
200.717	212.25
201.093	178.81
201.47	107.85
201.846	122.77
202.223	172.93
202.599	97.91
202.975	100.17
203.351	123.67
203.728	144.01
204.104	120.96
204.48	129.09
204.856	140.39
205.232	160.28
205.609	125.02
205.985	106.95
206.361	118.25
206.737	128.19
207.113	135.42
207.489	243.44
207.865	239.82
208.241	157.11
208.616	84.35
208.992	93.84
209.368	131.35
209.744	132.71
210.12	182.88
210.495	192.82
210.871	113.73
211.247	229.88
211.623	249.32
211.998	207.28
212.374	145.36
212.749	273.27
213.125	237.11
213.5	147.62
213.876	83.44
214.251	94.74
214.627	97.46
215.002	222.2
215.378	198.24
215.753	87.96
216.128	110.56
216.504	94.29
216.879	142.65
217.254	114.18
217.629	87.06
218.005	142.65
218.38	182.42
218.755	207.28
219.13	80.28
219.505	149.88
219.88	224.91
220.255	191.01
220.63	84.35
221.005	72.14
221.38	334.74
221.755	226.72
222.13	167.06
222.505	94.29
222.88	89.32
223.254	147.17
223.629	200.05
224.004	179.26
224.379	106.49
224.753	128.19
225.128	118.25
225.503	110.56
225.877	86.61
226.252	189.66
226.626	270.56
227.001	325.7
227.375	395.75
227.75	266.04
228.124	149.88
228.499	159.83
228.873	87.06
229.247	115.53
229.622	121.41
229.996	87.06
230.37	139.94
230.745	243.89
231.119	202.76
231.493	129.54
231.867	64.46
232.241	151.69
232.615	198.24
232.989	237.11
233.363	147.17
233.737	90.22
234.111	146.72
234.485	186.49
234.859	267.85
235.233	215.42
235.607	244.8
235.981	153.5
236.355	155.76
236.728	103.78
237.102	150.34
237.476	153.95
237.85	176.1
238.223	223.1
238.597	239.82
238.97	182.42
239.344	126.83
239.718	170.22
240.091	149.88
240.465	150.79
240.838	138.58
241.211	145.36
241.585	264.23
241.958	330.67
242.332	167.51
242.705	228.53
243.078	230.33
243.451	265.13
243.825	165.7
244.198	208.19
244.571	271.01
244.944	181.07
245.317	192.82
245.69	112.82
246.063	115.53
246.437	79.83
246.81	76.66
247.182	155.31
247.555	245.25
247.928	311.69
248.301	132.26
248.674	123.22
249.047	308.52
249.42	350.56
249.792	312.14
250.165	134.06
250.538	130
250.911	140.39
251.283	251.12
251.656	128.19
252.028	146.27
252.401	145.36
252.774	158.92
253.146	144.91
253.519	105.14
253.891	238.47
254.263	265.13
254.636	224.46
255.008	156.21
255.38	101.07
255.753	105.14
256.125	136.78
256.497	180.62
256.869	186.04
257.242	206.38
257.614	222.65
257.986	167.96
258.358	252.48
258.73	186.94
259.102	160.73
259.474	163.44
259.846	101.52
260.218	260.61
260.59	327.05
260.962	305.81
261.334	200.5
261.706	146.27
262.077	96.55
262.449	99.71
262.821	99.26
263.193	144.91
263.564	97.46
263.936	247.06
264.307	176.55
264.679	176.55
265.051	136.32
265.422	67.17
265.794	110.56
266.165	98.81
266.537	139.49
266.908	136.78
267.279	239.37
267.651	386.71
268.022	331.57
268.393	246.15
268.765	327.51
269.136	210.9
269.507	185.59
269.878	145.36
270.249	145.82
270.62	186.94
270.992	100.62
271.363	157.11
271.734	177
272.105	137.68
272.476	122.77
272.846	105.14
273.217	96.55
273.588	121.41
273.959	166.61
274.33	106.04
274.701	164.8
275.071	221.29
275.442	183.33
275.813	188.3
276.183	186.94
276.554	150.34
276.925	168.87
277.295	77.12
277.666	80.28
278.036	138.58
278.407	111.92
278.777	129.54
279.148	122.31
279.518	112.37
279.888	162.09
280.259	172.48
280.629	150.79
280.999	168.41
281.37	151.69
281.74	175.19
282.11	222.2
282.48	200.05
282.85	139.94
283.22	143.56
283.59	155.31
283.96	371.35
284.33	376.77
284.7	330.22
285.07	172.48
285.44	151.24
285.81	106.04
286.18	115.08
286.55	121.41
286.92	142.65
287.289	150.34
287.659	172.03
288.029	181.52
288.398	103.33
288.768	119.6
289.138	101.52
289.507	117.34
289.877	140.39
290.246	119.15
290.616	118.25
290.985	122.77
291.355	88.87
291.724	223.1
292.093	159.83
292.463	185.14
292.832	90.68
293.201	151.24
293.57	171.13
293.94	165.7
294.309	163.44
294.678	197.79
295.047	150.34
295.416	177.45
295.785	136.78
296.154	172.03
296.523	171.13
296.892	207.73
297.261	165.25
297.63	135.42
297.999	137.23
298.368	144.91
298.736	193.72
299.105	202.31
299.474	186.04
299.843	128.19
300.211	144.46
300.58	113.27
300.948	145.36
301.317	132.26
301.686	236.21
302.054	114.18
302.423	119.6
302.791	261.07
303.159	289.99
303.528	204.12
303.896	180.16
304.265	248.86
304.633	153.95
305.001	165.7
305.369	269.2
305.738	273.72
306.106	172.93
306.474	162.99
306.842	176.1
307.21	128.19
307.578	162.54
307.946	110.56
308.314	120.96
308.682	241.18
309.05	228.07
309.418	177.45
309.786	186.49
310.154	222.65
310.521	207.73
310.889	191.46
311.257	120.96
311.625	135.42
311.992	167.51
312.36	176.1
312.728	284.57
313.095	321.63
313.463	297.68
313.83	316.21
314.198	307.17
314.565	146.27
314.933	121.86
315.3	234.4
315.667	156.66
316.035	132.26
316.402	130.45
316.769	203.67
317.136	356.43
317.504	238.02
317.871	178.36
318.238	143.1
318.605	146.27
318.972	196.89
319.339	144.01
319.706	187.85
320.073	126.83
320.44	167.51
320.807	286.83
321.174	279.6
321.541	287.28
321.908	181.52
322.274	217.23
322.641	130
323.008	138.58
323.375	165.7
323.741	172.48
324.108	177
324.474	111.92
324.841	148.98
325.208	199.6
325.574	248.41
325.94	277.34
326.307	219.49
326.673	237.56
327.04	229.88
327.406	186.04
327.772	169.77
328.139	165.25
328.505	201.41
328.871	242.54
329.237	184.23
329.603	197.34
329.97	200.5
330.336	133.61
330.702	196.44
331.068	289.54
331.434	198.7
331.8	121.86
332.166	181.07
332.531	342.42
332.897	219.03
333.263	216.32
333.629	407.5
333.995	396.2
334.36	241.63
334.726	310.78
335.092	304.46
335.457	393.04
335.823	269.2
336.189	198.7
336.554	218.13
336.92	258.35
337.285	247.51
337.65	267.85
338.016	215.87
338.381	136.78
338.747	187.4
339.112	166.61
339.477	292.7
339.842	369.09
340.208	272.37
340.573	223.55
340.938	239.37
341.303	146.72
341.668	186.49
342.033	207.28
342.398	250.22
342.763	167.06
343.128	191.46
343.493	168.41
343.858	208.19
344.223	257.9
344.588	256.09
344.952	244.34
345.317	270.56
345.682	258.35
346.047	220.39
346.411	277.34
346.776	329.77
347.14	268.75
347.505	209.54
347.87	193.27
348.234	180.16
348.598	162.09
348.963	177
349.327	267.85
349.692	282.76
350.056	247.96
350.42	217.68
350.785	197.79
351.149	208.64
351.513	230.78
351.877	217.68
352.241	180.62
352.605	231.24
352.969	251.12
353.333	228.07
353.697	134.06
354.061	221.75
354.425	272.37
354.789	246.6
355.153	215.87
355.517	189.66
355.881	205.47
356.244	256.09
356.608	198.7
356.972	233.95
357.336	228.98
357.699	193.72
358.063	215.87
358.426	144.46
358.79	146.27
359.153	224.91
359.517	207.73
359.88	270.56
360.244	286.83
360.607	397.11
360.97	412.48
361.334	285.02
361.697	181.07
362.06	254.74
362.423	223.55
362.787	230.78
363.15	252.03
363.513	295.87
363.876	270.11
364.239	279.6
364.602	294.06
364.965	299.48
365.328	289.54
365.691	285.92
366.054	295.87
366.416	278.69
366.779	201.86
367.142	242.08
367.505	252.93
367.867	322.08
368.23	329.31
368.593	227.62
368.955	225.36
369.318	329.77
369.68	274.63
370.043	303.55
370.405	289.09
370.768	248.41
371.13	299.94
371.492	336.54
371.855	312.59
372.217	275.08
372.579	421.97
372.942	590.1
373.304	440.95
373.666	491.57
374.028	354.62
374.39	244.8
374.752	227.17
375.114	263.78
375.476	313.49
375.838	333.38
376.2	492.92
376.562	636.2
376.924	478.01
377.286	395.3
377.647	521.4
378.009	452.7
378.371	358.24
378.733	324.79
379.094	280.95
379.456	293.61
379.817	221.75
380.179	203.67
380.541	266.49
380.902	269.2
381.263	294.96
381.625	284.57
381.986	166.61
382.348	235.76
382.709	199.6
383.07	177
383.431	177
383.793	188.3
384.154	277.79
384.515	225.36
384.876	211.35
385.237	369.54
385.598	365.92
385.959	399.37
386.32	342.42
386.681	359.14
387.042	364.57
387.403	394.4
387.764	345.58
388.124	276.89
388.485	336.09
388.846	503.32
389.207	534.51
389.567	518.23
389.928	442.76
390.288	515.52
390.649	341.06
391.01	265.59
391.37	303.1
391.73	272.82
392.091	363.21
392.451	347.39
392.812	419.25
393.172	483.89
393.532	281.86
393.892	318.47
394.253	360.05
394.613	432.36
394.973	577.44
395.333	477.56
395.693	381.74
396.053	446.37
396.413	332.93
396.773	315.75
397.133	385.36
397.493	371.35
397.853	326.6
398.213	379.48
398.572	499.25
398.932	501.51
399.292	255.64
399.652	326.6
400.011	292.7
400.371	332.48
400.73	479.82
401.09	534.51
401.45	502.42
401.809	397.11
402.168	379.93
402.528	315.75
402.887	311.69
403.247	389.88
403.606	478.01
403.965	441.4
404.324	426.49
404.684	396.66
405.043	319.37
405.402	316.21
405.761	315.3
406.12	501.96
406.479	596.42
406.838	386.71
407.197	326.15
407.556	346.94
407.915	473.49
408.274	375.87
408.632	377.67
408.991	454.51
409.35	470.78
409.709	360.5
410.067	625.35
410.426	847.72
410.785	693.15
411.143	470.33
411.502	519.59
411.86	437.79
412.219	412.48
412.577	390.78
412.936	380.39
413.294	382.19
413.652	340.16
414.01	385.81
414.369	444.11
414.727	390.33
415.085	408.41
415.443	382.19
415.801	444.56
416.159	639.36
416.517	526.82
416.875	680.94
417.233	582.87
417.591	569.76
417.949	464
418.307	432.36
418.665	360.95
419.023	523.21
419.381	527.73
419.738	557.1
420.096	687.27
420.454	610.44
420.811	579.7
421.169	609.98
421.526	941.73
421.884	1061.05
422.241	605.92
422.599	450.44
422.956	538.57
423.313	499.25
423.671	506.94
424.028	434.17
424.385	614.96
424.743	539.93
425.1	475.3
425.457	454.96
425.814	434.17
426.171	565.24
426.528	708.51
426.885	662.86
427.242	558.01
427.599	531.34
427.956	525.92
428.313	517.33
428.67	458.58
429.026	447.28
429.383	398.92
429.74	467.61
430.097	454.51
430.453	603.66
430.81	529.99
431.166	560.72
431.523	790.77
431.879	605.01
432.236	507.39
432.592	464.45
432.949	468.52
433.305	538.57
433.661	496.54
434.018	519.59
434.374	575.18
434.73	565.69
435.086	584.67
435.442	447.73
435.799	503.77
436.155	576.99
436.511	640.27
436.867	865.34
437.223	850.43
437.578	645.69
437.934	555.3
438.29	702.18
438.646	1001.84
439.002	823.76
439.358	907.83
439.713	558.91
440.069	552.58
440.425	661.06
440.78	759.13
441.136	994.15
441.491	812.01
441.847	787.15
442.202	729.3
442.558	696.76
442.913	648.4
443.268	562.53
443.624	633.03
443.979	699.02
444.334	753.71
444.689	791.67
445.044	816.08
445.4	884.78
445.755	930.88
446.11	810.2
446.465	723.43
446.82	755.06
447.175	993.7
447.53	1109.41
447.884	909.19
448.239	664.67
448.594	1067.37
448.949	1030.31
449.303	845.91
449.658	952.57
450.013	1099.91
450.367	1211.1
450.722	970.65
451.077	804.33
451.431	767.72
451.785	652.92
452.14	781.73
452.494	1016.3
452.849	1056.53
453.203	970.2
453.557	1033.93
453.911	1056.98
454.266	1447.02
454.62	1384.2
454.974	1362.96
455.328	1601.14
455.682	1179.46
456.036	1571.31
456.39	1561.37
456.744	1361.15
457.098	1040.26
457.452	1592.11
457.806	2164.75
458.159	1313.69
458.513	1036.19
458.867	948.96
459.221	771.34
459.574	976.98
459.928	1126.58
460.281	963.42
460.635	772.24
460.989	884.78
461.342	990.54
461.695	1249.06
462.049	1219.23
462.402	1329.06
462.755	1809.5
463.109	1884.53
463.462	1665.32
463.815	1318.21
464.168	1606.57
464.521	1397.76
464.875	990.54
465.228	1390.53
465.581	1038
465.934	1061.05
466.287	945.34
466.639	964.32
466.992	1056.98
467.345	1367.93
467.698	1333.58
468.051	1664.87
468.403	1259.46
468.756	1468.72
469.109	1221.95
469.461	1516.17
469.814	1470.53
470.166	1259.01
470.519	1271.21
470.871	1194.83
471.224	1014.95
471.576	890.2
471.928	989.18
472.281	900.15
472.633	983.76
472.985	1049.75
473.337	1778.77
473.69	3126.98
474.042	2204.07
474.394	1756.17
474.746	1672.55
475.098	1690.63
475.45	1612.44
475.802	1658.54
476.154	3056.02
476.505	2187.34
476.857	1300.14
477.209	1376.97
477.561	1275.28
477.912	1258.55
478.264	1146.92
478.616	1030.31
478.967	1305.11
479.319	2138.08
479.67	2229.83
480.022	2385.3
480.373	2581.46
480.725	3124.27
481.076	2451.74
481.427	2368.13
481.779	2127.23
482.13	1558.21
482.481	1680.24
482.832	2220.34
483.183	1822.61
483.535	1414.03
483.886	1989.38
484.237	1956.39
484.588	2433.66
484.938	2169.72
485.289	2674.11
485.64	2438.18
485.991	1579
486.342	2242.03
486.693	2008.82
487.043	2204.07
487.394	1974.47
487.745	1774.7
488.095	1946.9
488.446	2055.82
488.796	1381.49
489.147	1903.51
489.497	2122.26
489.848	2291.3
490.198	1587.59
490.548	1907.58
490.899	2013.34
491.249	2174.24
491.599	2288.58
491.949	2528.58
492.299	2073
492.649	3534.65
493	4367.17
493.35	4280.85
493.7	3507.08
494.049	2431.4
494.399	2030.51
494.749	2416.94
495.099	2848.12
495.449	2485.19
495.799	2839.53
496.148	3571.71
496.498	4243.79
496.848	3013.08
497.197	2297.17
497.547	3723.57
497.896	4517.68
498.246	5187.04
498.595	4878.35
498.945	4637
499.294	2769.93
499.643	3132.4
499.993	3489.46
500.342	2485.64
500.691	2888.34
501.04	2778.97
501.389	2884.27
501.739	3490.36
502.088	3743.01
502.437	4299.38
502.786	3474.09
503.134	2614.45
503.483	5328.05
503.832	5269.75
504.181	3165.4
504.53	2792.07
504.879	4707.96
505.227	3787.3
505.576	4819.59
505.925	3302.34
506.273	4414.18
506.622	6379.78
506.97	6422.26
507.319	4706.6
507.667	3418.05
508.016	2472.53
508.364	3615.55
508.712	5895.27
509.06	4571.46
509.409	3431.15
509.757	3814.42
510.105	5188.39
510.453	4776.65
510.801	4105.49
511.149	3563.13
511.497	2865.29
511.845	4489.2
512.193	7033.77
512.541	4141.64
512.889	3934.19
513.237	4495.98
513.585	5787.25
513.932	5767.36
514.28	4312.49
514.628	7029.7
514.975	6370.74
515.323	4109.55
515.67	3298.73
516.018	3046.98
516.365	3611.49
516.713	3836.57
517.06	4575.98
517.407	6026.79
517.755	7514.66
518.102	5276.98
518.449	2974.22
518.796	4837.67
519.143	8562.77
519.491	10062.84
519.838	8760.73
520.185	6522.14
520.532	4212.15
520.879	4097.35
521.225	7393.99
521.572	8588.53
521.919	14168.95
522.266	13404.68
522.613	16430.58
522.959	9713.93
523.306	4312.03
523.653	5343.87
523.999	9358.23
524.346	6018.2
524.692	4674.96
525.039	3269.8
525.385	3490.36
525.732	5758.78
526.078	9154.84
526.424	12078.16
526.77	8843.44
527.117	5399.46
527.463	4869.31
527.809	6066.56
528.155	5116.08
528.501	6038.09
528.847	17456.55
529.193	14687.35
529.539	10130.64
529.885	12359.73
530.231	26779.24
530.577	42480.52
530.923	64609.66
531.268	64636.78
531.614	64613.72
531.96	64625.93
532.305	64593.84
532.651	64593.39
532.996	64628.19
533.342	64626.38
533.687	64626.38
534.033	64617.34
534.378	64616.89
534.724	60960.94
535.069	40031.32
535.414	34976.99
535.759	33584.94
536.105	22594.49
536.45	21322.66
536.795	19683.38
537.14	21458.7
537.485	20303.93
537.83	15233.33
538.175	13580.49
538.52	11324.28
538.865	8227.41
539.209	7375.91
539.554	8335.88
539.899	9787.14
540.244	11957.48
540.588	11961.55
540.933	9317.55
541.278	10188.49
541.622	8823.1
541.967	9280.94
542.311	8106.28
542.656	5919.67
543	3477.25
543.344	4804.68
543.689	5920.13
544.033	5269.75
544.377	5351.55
544.721	5657.99
545.065	5260.71
545.409	4453.05
545.754	6391.07
546.098	6312.88
546.441	7492.97
546.785	9000.72
547.129	9141.29
547.473	5085.35
547.817	4875.18
548.161	6330.51
548.505	6495.48
548.848	5024.78
549.192	4484.23
549.535	5081.28
549.879	5889.85
550.223	4942.53
550.566	6837.62
550.91	12981.64
551.253	8758.92
551.596	5959.9
551.94	6877.39
552.283	7121
552.626	6787.9
552.969	6587.23
553.313	7538.62
553.656	7639.86
553.999	6780.67
554.342	6367.12
554.685	7027.89
555.028	7116.93
555.371	6268.14
555.714	7404.83
556.056	9873.02
556.399	9058.58
556.742	7480.76
557.085	8264.02
557.427	9266.48
557.77	9755.05
558.112	8355.77
558.455	7337.49
558.798	7290.03
559.14	7542.23
559.482	8236.9
559.825	8370.68
560.167	8016.34
560.509	8116.68
560.852	9162.98
561.194	10896.72
561.536	9680.48
561.878	8280.74
562.22	8674.86
562.562	8266.28
562.904	7678.27
563.246	7621.78
563.588	7362.8
563.93	7410.71
564.272	7607.31
564.614	7548.11
564.956	7796.69
565.297	8240.07
565.639	8614.75
565.981	8866.49
566.322	8429.89
566.664	8520.74
567.005	7887.08
567.347	8268.09
567.688	9200.49
568.03	10085.44
568.371	9455.85
568.712	8207.07
569.054	6997.16
569.395	7360.54
569.736	7326.19
570.077	7142.24
570.418	7084.39
570.759	7789.91
571.1	8205.26
571.441	7157.16
571.782	6562.82
572.123	6403.73
572.464	6904.06
572.805	7903.8
573.146	9324.78
573.486	7821.55
573.827	6962.36
574.168	6120.8
574.508	6618.41
574.849	6615.7
575.189	6317.86
575.53	6199.44
575.87	5980.24
576.211	6486.89
576.551	6395.59
576.891	5686.01
577.232	5816.63
577.572	5930.52
577.912	6368.02
578.252	5979.33
578.592	5756.97
578.932	5586.12
579.272	5417.99
579.612	5285.57
579.952	5265.68
580.292	5890.75
580.632	6962.36
580.972	5911.09
581.312	5507.93
581.651	5548.16
581.991	5198.79
582.331	5586.12
582.67	6186.33
583.01	5651.21
583.349	5085.8
583.689	4778.46
584.028	5093.93
584.368	5064.56
584.707	4573.72
585.046	4817.78
585.386	5625.9
585.725	5733.01
586.064	5705.44
586.403	4771.23
586.742	4468.87
587.081	4575.53
587.42	4402.88
587.759	5712.22
588.098	6152.44
588.437	4913.6
588.776	4752.25
589.115	5135.51
589.453	5025.69
589.792	4384.35
590.131	4170.12
590.469	4091.02
590.808	4075.66
591.147	4150.23
591.485	4114.98
591.824	3887.64
592.162	3920.63
592.5	3902.1
592.839	3858.26
593.177	3721.31
593.515	3739.39
593.853	4124.92
594.192	4479.26
594.53	4463.89
594.868	3915.21
595.206	3412.62
595.544	3670.24
595.882	3976.68
596.22	3982.1
596.558	3439.74
596.895	3409.46
597.233	3625.05
597.571	3765.61
597.909	3537.36
598.246	3300.08
598.584	3446.52
598.921	3377.37
599.259	3537.82
599.596	3347.54
599.934	3118.39
600.271	3240.88
600.609	3341.66
600.946	3454.65
601.283	3311.38
601.62	3105.74
601.958	2819.19
602.295	2847.67
602.632	2823.71
602.969	2901.9
603.306	2765.86
603.643	2638.86
603.98	2716.6
604.317	2650.61
604.654	2553.44
604.99	2533.1
605.327	2486.09
605.664	2763.15
606	2767.67
606.337	2539.42
606.674	2493.78
607.01	2402.03
607.347	2515.92
607.683	2593.66
608.02	2378.98
608.356	2298.98
608.692	2392.54
609.029	2411.52
609.365	2373.55
609.701	2526.32
610.037	2573.32
610.373	2237.51
610.709	2150.28
611.045	2281.8
611.381	2213.11
611.717	2228.92
612.053	2368.58
612.389	2496.94
612.725	2348.7
613.061	2279.09
613.396	2280
613.732	2149.38
614.068	2124.52
614.403	2324.74
614.739	2353.67
615.074	2159.77
615.41	2002.94
