Data from 0_340_Subt2_01.txt Node
Date: Tue Feb 04 18:37:38 CST 2020
User: Biofotoacustica
Spectrometer: USB2+H15927
Trigger mode: 0
Integration Time (sec): 2.000000E-1
Scans to average: 5
Electric dark correction enabled: true
Nonlinearity correction enabled: false
Boxcar width: 0
XAxis mode: Wavelengths
Number of Pixels in Spectrum: 2048
>>>>>Begin Spectral Data<<<<<
179.215	2.32
179.593	2.32
179.971	2.32
180.349	-16.67
180.727	70.11
181.105	7.29
181.483	-11.69
181.86	-9.89
182.238	23.56
182.616	-3.56
182.994	3.22
183.371	3.22
183.749	15.42
184.127	14.07
184.504	24.01
184.882	5.48
185.26	-12.15
185.637	-23.45
186.015	-47.85
186.392	12.71
186.77	1.41
187.147	5.48
187.524	27.63
187.902	45.25
188.279	259.94
188.657	493.15
189.034	329.99
189.411	227.4
189.788	144.69
190.166	208.86
190.543	126.15
190.92	119.83
191.297	203.44
191.674	281.63
192.051	241.41
192.428	170.45
192.805	199.83
193.182	151.92
193.559	176.78
193.936	124.8
194.313	144.69
194.69	172.26
195.067	145.59
195.444	189.43
195.821	217
196.198	197.11
196.574	293.83
196.951	170.9
197.328	135.65
197.704	118.47
198.081	106.72
198.458	76.44
198.834	114.4
199.211	97.23
199.588	174.06
199.964	192.59
200.341	173.16
200.717	249.99
201.093	137
201.47	68.3
201.846	164.12
202.223	204.8
202.599	95.42
202.975	77.34
203.351	115.31
203.728	133.84
204.104	124.35
204.48	119.83
204.856	145.59
205.232	160.96
205.609	158.24
205.985	132.03
206.361	112.14
206.737	107.17
207.113	120.28
207.489	276.21
207.865	227.4
208.241	170.45
208.616	111.24
208.992	99.94
209.368	164.57
209.744	123.44
210.12	176.32
210.495	204.34
210.871	88.19
211.247	153.72
211.623	264.46
211.998	190.33
212.374	108.08
212.749	265.36
213.125	249.54
213.5	172.26
213.876	88.19
214.251	47.51
214.627	120.28
215.002	231.91
215.378	221.97
215.753	103.1
216.128	130.22
216.504	123.44
216.879	138.81
217.254	141.52
217.629	103.1
218.005	122.54
218.38	188.98
218.755	214.74
219.13	99.04
219.505	117.57
219.88	255.42
220.255	176.78
220.63	107.17
221.005	112.14
221.38	281.63
221.755	184.46
222.13	153.72
222.505	93.16
222.88	102.65
223.254	149.66
223.629	219.26
224.004	170.45
224.379	124.8
224.753	102.2
225.128	132.03
225.503	110.34
225.877	125.25
226.252	196.21
226.626	273.95
227.001	318.24
227.375	367.5
227.75	253.16
228.124	160.05
228.499	149.21
228.873	86.38
229.247	95.42
229.622	107.62
229.996	81.41
230.37	151.01
230.745	204.34
231.119	135.19
231.493	120.28
231.867	84.12
232.241	160.05
232.615	201.63
232.989	228.3
233.363	164.57
233.737	98.13
234.111	129.77
234.485	208.41
234.859	223.33
235.233	193.95
235.607	259.48
235.981	150.56
236.355	159.6
236.728	121.18
237.102	105.36
237.476	184.01
237.85	177.68
238.223	217.9
238.597	213.84
238.97	193.5
239.344	155.53
239.718	177.68
240.091	104.01
240.465	139.26
240.838	154.18
241.211	162.31
241.585	232.37
241.958	311.46
242.332	155.53
242.705	221.07
243.078	251.35
243.451	247.28
243.825	193.05
244.198	219.26
244.571	254.51
244.944	209.32
245.317	178.58
245.69	94.52
246.063	85.48
246.437	90.9
246.81	141.97
247.182	170.45
247.555	261.29
247.928	325.92
248.301	143.78
248.674	165.48
249.047	305.59
249.42	339.03
249.792	302.42
250.165	163.67
250.538	127.06
250.911	144.23
251.283	265.81
251.656	103.1
252.028	143.33
252.401	163.22
252.774	170
253.146	170
253.519	133.84
253.891	252.71
254.263	248.19
254.636	190.79
255.008	125.7
255.38	104.01
255.753	119.38
256.125	136.55
256.497	155.08
256.869	190.79
257.242	222.88
257.614	209.77
257.986	143.78
258.358	211.58
258.73	234.63
259.102	147.85
259.474	162.31
259.846	118.02
260.218	266.26
260.59	317.34
260.962	334.51
261.334	216.55
261.706	113.5
262.077	96.33
262.449	83.22
262.821	100.39
263.193	113.95
263.564	114.4
263.936	236.89
264.307	143.78
264.679	141.07
265.051	104.46
265.422	101.3
265.794	106.72
266.165	132.03
266.537	155.53
266.908	179.03
267.279	259.94
267.651	384.23
268.022	308.3
268.393	264
268.765	300.16
269.136	234.17
269.507	199.37
269.878	144.23
270.249	122.09
270.62	165.93
270.992	94.52
271.363	152.37
271.734	166.83
272.105	128.87
272.476	113.05
272.846	103.56
273.217	139.71
273.588	108.53
273.959	114.86
274.33	122.09
274.701	132.48
275.071	166.38
275.442	193.95
275.813	190.79
276.183	158.24
276.554	145.59
276.925	176.78
277.295	119.83
277.666	86.83
278.036	196.21
278.407	127.51
278.777	134.29
279.148	157.79
279.518	156.89
279.888	120.28
280.259	151.01
280.629	162.76
280.999	160.96
281.37	137.45
281.74	202.09
282.11	266.72
282.48	228.3
282.85	141.07
283.22	182.65
283.59	134.74
283.96	346.71
284.33	320.5
284.7	310.56
285.07	160.5
285.44	115.31
285.81	124.35
286.18	122.99
286.55	113.95
286.92	136.55
287.289	147.85
287.659	198.47
288.029	180.84
288.398	139.71
288.768	127.96
289.138	108.53
289.507	135.19
289.877	129.77
290.246	139.71
290.616	126.61
290.985	86.83
291.355	100.84
291.724	220.16
292.093	176.78
292.463	197.57
292.832	145.14
293.201	155.98
293.57	127.96
293.94	150.11
294.309	166.38
294.678	200.73
295.047	195.31
295.416	176.32
295.785	153.27
296.154	151.46
296.523	198.47
296.892	201.63
297.261	156.44
297.63	130.67
297.999	113.5
298.368	114.86
298.736	188.53
299.105	219.26
299.474	198.47
299.843	123.9
300.211	130.67
300.58	101.75
300.948	167.28
301.317	151.46
301.686	238.24
302.054	117.57
302.423	131.58
302.791	244.12
303.159	273.95
303.528	230.56
303.896	184.91
304.265	228.75
304.633	131.13
305.001	161.41
305.369	259.48
305.738	273.95
306.106	171.35
306.474	172.71
306.842	158.7
307.21	106.27
307.578	131.13
307.946	117.57
308.314	116.21
308.682	209.77
309.05	273.95
309.418	177.23
309.786	182.2
310.154	245.93
310.521	225.59
310.889	168.19
311.257	100.84
311.625	115.76
311.992	187.17
312.36	183.1
312.728	258.58
313.095	321.4
313.463	295.19
313.83	314.62
314.198	338.13
314.565	175.87
314.933	156.44
315.3	218.36
315.667	220.16
316.035	133.84
316.402	153.72
316.769	181.29
317.136	371.12
317.504	237.79
317.871	190.79
318.238	149.21
318.605	99.49
318.972	141.97
319.339	161.41
319.706	168.64
320.073	158.7
320.44	182.65
320.807	263.1
321.174	285.25
321.541	259.94
321.908	232.37
322.274	217
322.641	128.41
323.008	174.52
323.375	171.35
323.741	224.23
324.108	200.73
324.474	139.71
324.841	153.27
325.208	213.38
325.574	242.76
325.94	256.32
326.307	212.48
326.673	269.43
327.04	174.52
327.406	177.68
327.772	178.58
328.139	157.79
328.505	227.4
328.871	214.74
329.237	157.79
329.603	202.99
329.97	171.35
330.336	120.28
330.702	195.76
331.068	270.78
331.434	207.96
331.8	183.1
332.166	172.26
332.531	297.9
332.897	246.83
333.263	264.91
333.629	452.02
333.995	407.73
334.36	216.1
334.726	315.53
335.092	246.38
335.457	394.17
335.823	270.78
336.189	209.32
336.554	217.45
336.92	236.43
337.285	231.01
337.65	212.48
338.016	240.5
338.381	156.89
338.747	139.71
339.112	201.63
339.477	293.83
339.842	343.1
340.208	266.26
340.573	224.23
340.938	210.67
341.303	143.78
341.668	200.73
342.033	237.79
342.398	243.21
342.763	184.46
343.128	224.23
343.493	212.93
343.858	251.8
344.223	285.25
344.588	258.13
344.952	236.89
345.317	245.47
345.682	236.43
346.047	133.84
346.411	289.77
346.776	299.71
347.14	305.13
347.505	199.37
347.87	184.46
348.234	201.63
348.598	164.12
348.963	196.66
349.327	268.98
349.692	238.24
350.056	248.64
350.42	225.14
350.785	217.9
351.149	256.77
351.513	223.33
351.877	210.22
352.241	168.64
352.605	249.54
352.969	264.91
353.333	253.61
353.697	138.81
354.061	211.58
354.425	276.21
354.789	249.99
355.153	184.46
355.517	199.83
355.881	175.42
356.244	268.52
356.608	187.62
356.972	247.73
357.336	209.77
357.699	206.15
358.063	174.97
358.426	137
358.79	149.66
359.153	210.22
359.517	231.91
359.88	293.38
360.244	309.65
360.607	384.68
360.97	414.51
361.334	269.88
361.697	209.77
362.06	258.58
362.423	212.93
362.787	232.37
363.15	229.65
363.513	279.82
363.876	296.55
364.239	260.84
364.602	329.99
364.965	294.29
365.328	295.64
365.691	278.92
366.054	315.53
366.416	280.28
366.779	222.42
367.142	251.8
367.505	247.73
367.867	320.05
368.23	287.51
368.593	242.31
368.955	233.27
369.318	297.45
369.68	295.64
370.043	315.08
370.405	258.13
370.768	242.76
371.13	334.96
371.492	322.76
371.855	353.04
372.217	291.12
372.579	407.28
372.942	581.74
373.304	432.14
373.666	463.32
374.028	391.01
374.39	239.6
374.752	211.58
375.114	261.29
375.476	320.95
375.838	309.2
376.2	522.53
376.562	609.76
376.924	423.1
377.286	368.86
377.647	513.04
378.009	424
378.371	346.71
378.733	329.54
379.094	303.33
379.456	343.55
379.817	225.14
380.179	172.71
380.541	268.52
380.902	247.28
381.263	235.53
381.625	238.69
381.986	159.15
382.348	238.24
382.709	185.36
383.07	197.11
383.431	155.53
383.793	172.71
384.154	197.11
384.515	239.6
384.876	203.89
385.237	380.61
385.598	377.9
385.959	388.29
386.32	363.89
386.681	317.79
387.042	362.53
387.403	369.76
387.764	306.94
388.124	256.77
388.485	363.44
388.846	512.13
389.207	552.36
389.567	495.41
389.928	427.16
390.288	448.86
390.649	336.77
391.01	240.95
391.37	265.81
391.73	292.03
392.091	400.95
392.451	352.14
392.812	399.14
393.172	471.91
393.532	258.58
393.892	328.64
394.253	326.83
394.613	444.34
394.973	583.54
395.333	469.2
395.693	409.99
396.053	443.43
396.413	363.89
396.773	315.53
397.133	377.45
397.493	373.83
397.853	312.36
398.213	353.49
398.572	513.49
398.932	452.02
399.292	291.12
399.652	325.47
400.011	297
400.371	362.08
400.73	476.43
401.09	517.56
401.45	480.04
401.809	384.23
402.168	349.43
402.528	304.23
402.887	303.33
403.247	396.43
403.606	497.67
403.965	415.41
404.324	406.83
404.684	418.12
405.043	295.64
405.402	280.73
405.761	318.24
406.12	467.84
406.479	601.62
406.838	388.29
407.197	309.65
407.556	367.96
407.915	436.66
408.274	379.71
408.632	358.01
408.991	433.04
409.35	459.25
409.709	334.51
410.067	643.2
410.426	834.38
410.785	678.91
411.143	472.36
411.502	523.88
411.86	442.53
412.219	405.92
412.577	372.02
412.936	370.67
413.294	411.35
413.652	341.29
414.01	404.11
414.369	424
414.727	427.62
415.085	375.19
415.443	401.4
415.801	475.98
416.159	640.04
416.517	529.76
416.875	689.3
417.233	557.78
417.591	575.41
417.949	418.12
418.307	394.62
418.665	319.14
419.023	505.81
419.381	529.31
419.738	599.36
420.096	669.87
420.454	573.6
420.811	592.13
421.169	590.32
421.526	900.37
421.884	1012.91
422.241	615.18
422.599	450.67
422.956	561.4
423.313	478.24
423.671	488.18
424.028	428.52
424.385	572.24
424.743	466.94
425.1	473.72
425.457	450.67
425.814	419.93
426.171	606.59
426.528	698.34
426.885	658.12
427.242	571.79
427.599	523.88
427.956	517.11
428.313	538.35
428.67	499.93
429.026	427.16
429.383	377.9
429.74	452.02
430.097	470.55
430.453	589.87
430.81	531.57
431.166	515.75
431.523	770.66
431.879	609.31
432.236	470.1
432.592	476.43
432.949	500.83
433.305	516.65
433.661	481.4
434.018	486.37
434.374	535.64
434.73	518.01
435.086	565.92
435.442	440.27
435.799	479.14
436.155	593.94
436.511	619.25
436.867	867.83
437.223	796.87
437.578	609.76
437.934	510.33
438.29	656.76
438.646	968.17
439.002	819.47
439.358	899.92
439.713	533.83
440.069	547.39
440.425	647.72
440.78	733.14
441.136	1038.67
441.491	794.61
441.847	818.57
442.202	741.73
442.558	711.45
442.913	674.39
443.268	578.12
443.624	615.18
443.979	641.85
444.334	721.85
444.689	764.78
445.044	789.19
445.4	838
445.755	859.69
446.11	817.66
446.465	726.37
446.82	732.24
447.175	994.83
447.53	1101.5
447.884	863.31
448.239	649.08
448.594	1078.9
448.949	1041.39
449.303	826.7
449.658	943.31
450.013	1136.3
450.367	1196.86
450.722	940.6
451.077	775.63
451.431	724.11
451.785	669.87
452.14	803.65
452.494	995.74
452.849	1048.62
453.203	941.95
453.557	998
453.911	1028.73
454.266	1428.27
454.62	1396.63
454.974	1364.09
455.328	1608.15
455.682	1140.37
456.036	1553.91
456.39	1503.75
456.744	1350.53
457.098	1017.43
457.452	1556.63
457.806	2113.45
458.159	1287.71
458.513	980.82
458.867	875.06
459.221	733.14
459.574	978.11
459.928	1106.92
460.281	894.04
460.635	766.59
460.989	889.98
461.342	982.18
461.695	1249.74
462.049	1195.96
462.402	1297.65
462.755	1757.75
463.109	1850.86
463.462	1581.48
463.815	1233.92
464.168	1555.72
464.521	1367.7
464.875	945.12
465.228	1351.89
465.581	1001.16
465.934	1005.23
466.287	936.98
466.639	926.59
466.992	1069.41
467.345	1327.93
467.698	1266.46
468.051	1632.1
468.403	1181.04
468.756	1414.71
469.109	1237.09
469.461	1491.09
469.814	1379.91
470.166	1217.2
470.519	1206.35
470.871	1134.94
471.224	1041.39
471.576	839.36
471.928	983.99
472.281	909.41
472.633	949.18
472.985	986.7
473.337	1674.59
473.69	3082.01
474.042	2226.44
474.394	1704.42
474.746	1643.4
475.098	1628.04
475.45	1582.39
475.802	1606.34
476.154	2992.52
476.505	2172.2
476.857	1263.3
477.209	1292.23
477.561	1242.51
477.912	1217.2
478.264	1163.42
478.616	982.18
478.967	1307.59
479.319	2061.47
479.67	2213.33
480.022	2402.25
480.373	2558.63
480.725	3070.26
481.076	2377.4
481.427	2297.85
481.779	2052.88
482.13	1530.41
482.481	1672.78
482.832	2085.88
483.183	1773.12
483.535	1400.25
483.886	1921.81
484.237	1910.06
484.588	2351.63
484.938	2108.93
485.289	2604.73
485.64	2348.92
485.991	1556.63
486.342	2171.75
486.693	1981.02
487.043	2092.2
487.394	1860.35
487.745	1669.62
488.095	1886.11
488.446	1994.13
488.796	1387.14
489.147	1887.01
489.497	2034.35
489.848	2182.6
490.198	1527.25
490.548	1819.22
490.899	1927.69
491.249	2078.65
491.599	2237.74
491.949	2515.24
492.299	2056.05
492.649	3466.18
493	4276.1
493.35	4159.5
493.7	3398.84
494.049	2410.39
494.399	1955.26
494.749	2353.89
495.099	2768.35
495.449	2415.36
495.799	2738.52
496.148	3521.32
496.498	4110.68
496.848	2860.09
497.197	2277.96
497.547	3693.97
497.896	4441.97
498.246	5009.19
498.595	4674.28
498.945	4472.71
499.294	2724.5
499.643	3042.24
499.993	3401.1
500.342	2442.93
500.691	2840.21
501.04	2750.27
501.389	2776.48
501.739	3364.04
502.088	3657.36
502.437	4279.72
502.786	3395.22
503.134	2531.52
503.483	5156.53
503.832	5119.02
504.181	3067.55
504.53	2672.53
504.879	4496.21
505.227	3713.41
505.576	4626.83
505.925	3264.15
506.273	4295.08
506.622	6313.56
506.97	6191.08
507.319	4574.4
507.667	3281.33
508.016	2461.01
508.364	3584.6
508.712	5716.97
509.06	4436.1
509.409	3353.64
509.757	3691.71
510.105	5001.51
510.453	4656.66
510.801	3871.59
511.149	3512.73
511.497	2821.68
511.845	4343.9
512.193	6849.14
512.541	4053.74
512.889	3808.32
513.237	4353.39
513.585	5655.95
513.932	5612.56
514.28	4148.65
514.628	6830.16
514.975	6310.85
515.323	3962.44
515.67	3169.69
516.018	2992.97
516.365	3636.12
516.713	3670.92
517.06	4452.37
517.407	5891.43
517.755	7316.93
518.102	5103.65
518.449	2845.18
518.796	4671.57
519.143	8190.58
519.491	9996.63
519.838	8631.24
520.185	6347.46
520.532	4123.34
520.879	4001.76
521.225	7131.62
521.572	8357.8
521.919	13853.7
522.266	13018.02
522.613	15807.1
522.959	9378.79
523.306	4190.23
523.653	5141.16
523.999	9115.75
524.346	5883.74
524.692	4624.12
525.039	3247.43
525.385	3442.68
525.732	5611.66
526.078	9033.49
526.424	12256.91
526.77	8730.67
527.117	5348.62
527.463	4712.7
527.809	5749.51
528.155	4935.52
528.501	5798.32
528.847	17106.05
529.193	14180.93
529.539	9682.97
529.885	12151.15
530.231	26223.55
530.577	41640.09
530.923	64616.66
531.268	64643.78
531.614	64620.73
531.96	64632.93
532.305	64600.84
532.651	64600.39
532.996	64635.19
533.342	64633.39
533.687	64633.39
534.033	64624.35
534.378	64623.89
534.724	61082.29
535.069	39052.14
535.414	33523.69
535.759	32589.03
536.105	21966.48
536.45	20596.58
536.795	19071.19
537.14	20810.81
537.485	19564.29
537.83	14766.22
538.175	13205.13
538.52	10948.47
538.865	7963.24
539.209	7128.46
539.554	8058.15
539.899	9691.1
540.244	11738.96
540.588	11649.47
540.933	9158.23
541.278	9914.82
541.622	8583.79
541.967	8887.05
542.311	7866.06
542.656	5855.72
543	3467.99
543.344	4665.24
543.689	5729.62
544.033	5160.15
544.377	5268.62
544.721	5463.87
545.065	5155.18
545.409	4384.57
545.754	6307.69
546.098	6172.1
546.441	7310.15
546.785	8912.36
547.129	8978.8
547.473	4966.25
547.817	4890.32
548.161	6297.74
548.505	6549.49
548.848	5010.09
549.192	4427.51
549.535	5097.78
549.879	5899.56
550.223	4957.67
550.566	6944.96
550.91	12940.28
551.253	8776.32
551.596	5957.41
551.94	6761.01
552.283	7039.42
552.626	6776.38
552.969	6550.84
553.313	7476.92
553.656	7600.31
553.999	6833.78
554.342	6421.13
554.685	7141.11
555.028	7103.15
555.371	6361.47
555.714	7470.14
556.056	9855.16
556.399	9200.27
556.742	7636.92
557.085	8300.86
557.427	9369.75
557.77	9616.07
558.112	8338.82
558.455	7424.04
558.798	7274.44
559.14	7507.2
559.482	8283.23
559.825	8379.05
560.167	8110.13
560.509	8237.13
560.852	9198.46
561.194	10945.31
561.536	9664.44
561.878	8355.54
562.22	8762.31
562.562	8343.34
562.904	7801.43
563.246	7703.36
563.588	7441.67
563.93	7547.43
564.272	7758.95
564.614	7700.19
564.956	7863.8
565.297	8286.39
565.639	8755.98
565.981	9006.37
566.322	8502.43
566.664	8669.21
567.005	8062.67
567.347	8368.65
567.688	9382.41
568.03	10147.59
568.371	9617.88
568.712	8234.87
569.054	7122.13
569.395	7448
569.736	7405.96
570.077	7221.11
570.418	7132.52
570.759	7739.51
571.1	8197.81
571.441	7214.33
571.782	6616.83
572.123	6519.66
572.464	6938.18
572.805	7916.68
573.146	9426.25
573.486	7918.94
573.827	7019.08
574.168	6199.67
574.508	6777.73
574.849	6714.91
575.189	6397.18
575.53	6346.1
575.87	5937.08
576.211	6608.7
576.551	6549.49
576.891	5836.29
577.232	5995.83
577.572	6008.94
577.912	6433.33
578.252	5954.7
578.592	5859.79
578.932	5787.93
579.272	5562.85
579.612	5351.33
579.952	5415.06
580.292	5948.83
580.632	6999.19
580.972	5916.29
581.312	5694.37
581.651	5563.3
581.991	5232.91
582.331	5688.49
582.67	6248.93
583.01	5668.16
583.349	5189.98
583.689	4837.9
584.028	5151.56
584.368	5040.38
584.707	4714.06
585.046	4875.86
585.386	5747.7
585.725	5789.28
586.064	5740.92
586.403	4758.35
586.742	4489.43
587.081	4573.5
587.42	4438.81
587.759	5815.04
588.098	6094.36
588.437	4975.74
588.776	4772.36
589.115	5110.88
589.453	5080.6
589.792	4495.76
590.131	4285.14
590.469	4062.32
590.808	4128.31
591.147	4141.87
591.485	4186.16
591.824	3961.08
592.162	3856.23
592.5	3886.06
592.839	3995.43
593.177	3769.9
593.515	3833.63
593.853	4211.02
594.192	4524.68
594.53	4551.8
594.868	3905.94
595.206	3434.99
595.544	3722.44
595.882	3983.68
596.22	3970.57
596.558	3518.61
596.895	3459.4
597.233	3646.06
597.571	3856.68
597.909	3625.27
598.246	3297.14
598.584	3462.11
598.921	3336.01
599.259	3537.14
599.596	3437.71
599.934	3181.44
600.271	3269.12
600.609	3373.53
600.946	3478.38
601.283	3317.03
601.62	3117.26
601.958	2868.68
602.295	2891.73
602.632	2835.69
602.969	2877.72
603.306	2764.28
603.643	2754.79
603.98	2724.05
604.317	2698.74
604.654	2656.26
604.99	2573.1
605.327	2490.39
605.664	2740.78
606	2745.3
606.337	2525.64
606.674	2567.22
607.01	2480.44
607.347	2520.67
607.683	2645.41
608.02	2406.32
608.356	2335.36
608.692	2440.22
609.029	2434.34
609.365	2411.74
609.701	2560.44
610.037	2597.95
610.373	2336.27
610.709	2240
611.045	2278.41
611.381	2237.74
611.717	2308.24
612.053	2339.88
612.389	2612.42
612.725	2399.99
613.061	2302.82
613.396	2246.78
613.732	2131.98
614.068	2150.96
614.403	2322.71
614.739	2372.88
615.074	2209.72
615.41	1967.01
